Date: 01.12.2018 16:48:36
Channel	WavelengthAshiftRegauged	WavelengthAnotRegauged	Counts
	A	A	
1	3826.243	3824.928	9104
2	3826.304	3824.99	9108
3	3826.365	3825.051	9187
4	3826.426	3825.112	9176
5	3826.487	3825.173	8905
6	3826.548	3825.234	8622
7	3826.61	3825.295	8622
8	3826.671	3825.356	8570
9	3826.732	3825.417	8609
10	3826.793	3825.479	8594
11	3826.854	3825.54	8433
12	3826.915	3825.601	8518
13	3826.976	3825.662	8599
14	3827.038	3825.723	8730
15	3827.099	3825.784	8759
16	3827.16	3825.845	8939
17	3827.221	3825.906	9164
18	3827.282	3825.968	9448
19	3827.343	3826.029	9572
20	3827.404	3826.09	9590
21	3827.465	3826.151	9128
22	3827.527	3826.212	8748
23	3827.588	3826.273	8569
24	3827.649	3826.334	8635
25	3827.71	3826.396	8576
26	3827.771	3826.457	8671
27	3827.832	3826.518	8514
28	3827.893	3826.579	8666
29	3827.955	3826.64	8846
30	3828.016	3826.701	9065
31	3828.077	3826.762	9193
32	3828.138	3826.823	9197
33	3828.199	3826.885	9097
34	3828.26	3826.946	8745
35	3828.321	3827.007	8598
36	3828.382	3827.068	8596
37	3828.444	3827.129	8582
38	3828.505	3827.19	8693
39	3828.566	3827.251	8886
40	3828.627	3827.313	8834
41	3828.688	3827.374	8962
42	3828.749	3827.435	9057
43	3828.81	3827.496	9159
44	3828.872	3827.557	9376
45	3828.933	3827.618	9484
46	3828.994	3827.679	9328
47	3829.055	3827.74	9085
48	3829.116	3827.802	8724
49	3829.177	3827.863	8627
50	3829.238	3827.924	8927
51	3829.299	3827.985	9183
52	3829.361	3828.046	9208
53	3829.422	3828.107	9433
54	3829.483	3828.168	9212
55	3829.544	3828.229	9137
56	3829.605	3828.291	8788
57	3829.666	3828.352	8854
58	3829.727	3828.413	8745
59	3829.789	3828.474	8679
60	3829.85	3828.535	8798
61	3829.911	3828.596	8840
62	3829.972	3828.657	8845
63	3830.033	3828.719	8737
64	3830.094	3828.78	8740
65	3830.155	3828.841	8925
66	3830.216	3828.902	9122
67	3830.278	3828.963	9369
68	3830.339	3829.024	9404
69	3830.4	3829.085	9394
70	3830.461	3829.146	9049
71	3830.522	3829.208	8602
72	3830.583	3829.269	8639
73	3830.644	3829.33	8587
74	3830.706	3829.391	8534
75	3830.767	3829.452	8631
76	3830.828	3829.513	8686
77	3830.889	3829.574	8884
78	3830.95	3829.635	9266
79	3831.011	3829.697	9290
80	3831.072	3829.758	9389
81	3831.133	3829.819	9164
82	3831.195	3829.88	8854
83	3831.256	3829.941	8784
84	3831.317	3830.002	8680
85	3831.378	3830.063	8845
86	3831.439	3830.125	8720
87	3831.5	3830.186	8825
88	3831.561	3830.247	8870
89	3831.623	3830.308	8952
90	3831.684	3830.369	9153
91	3831.745	3830.43	9224
92	3831.806	3830.491	9452
93	3831.867	3830.552	9497
94	3831.928	3830.614	9050
95	3831.989	3830.675	8710
96	3832.05	3830.736	8738
97	3832.112	3830.797	8955
98	3832.173	3830.858	9332
99	3832.234	3830.919	9362
100	3832.295	3830.98	9426
101	3832.356	3831.042	9122
102	3832.417	3831.103	8777
103	3832.478	3831.164	8684
104	3832.54	3831.225	8577
105	3832.601	3831.286	8720
106	3832.662	3831.347	8938
107	3832.723	3831.408	9203
108	3832.784	3831.469	9394
109	3832.845	3831.531	9467
110	3832.906	3831.592	9293
111	3832.967	3831.653	9256
112	3833.029	3831.714	9253
113	3833.09	3831.775	9416
114	3833.151	3831.836	9503
115	3833.212	3831.897	9371
116	3833.273	3831.958	9010
117	3833.334	3832.02	8756
118	3833.395	3832.081	8669
119	3833.457	3832.142	8637
120	3833.518	3832.203	8662
121	3833.579	3832.264	8736
122	3833.64	3832.325	8951
123	3833.701	3832.386	9197
124	3833.762	3832.448	9455
125	3833.823	3832.509	9634
126	3833.884	3832.57	9469
127	3833.946	3832.631	9000
128	3834.007	3832.692	8857
129	3834.068	3832.753	8950
130	3834.129	3832.814	8837
131	3834.19	3832.875	8759
132	3834.251	3832.937	8782
133	3834.312	3832.998	8908
134	3834.374	3833.059	9092
135	3834.435	3833.12	9284
136	3834.496	3833.181	9431
137	3834.557	3833.242	9469
138	3834.618	3833.303	9158
139	3834.679	3833.365	8835
140	3834.74	3833.426	8951
141	3834.801	3833.487	9160
142	3834.863	3833.548	9397
143	3834.924	3833.609	9522
144	3834.985	3833.67	9483
145	3835.046	3833.731	9023
146	3835.107	3833.792	8681
147	3835.168	3833.854	8643
148	3835.229	3833.915	8616
149	3835.291	3833.976	8658
150	3835.352	3834.037	8896
151	3835.413	3834.098	9003
152	3835.474	3834.159	9231
153	3835.535	3834.22	9728
154	3835.596	3834.282	10242
155	3835.657	3834.343	10522
156	3835.718	3834.404	10731
157	3835.78	3834.465	10728
158	3835.841	3834.526	10184
159	3835.902	3834.587	9508
160	3835.963	3834.648	9150
161	3836.024	3834.709	8972
162	3836.085	3834.771	8866
163	3836.146	3834.832	8923
164	3836.208	3834.893	9060
165	3836.269	3834.954	9323
166	3836.33	3835.015	9412
167	3836.391	3835.076	9470
168	3836.452	3835.137	9090
169	3836.513	3835.199	8756
170	3836.574	3835.26	8698
171	3836.635	3835.321	8736
172	3836.697	3835.382	8993
173	3836.758	3835.443	9115
174	3836.819	3835.504	9419
175	3836.88	3835.565	9554
176	3836.941	3835.626	9705
177	3837.002	3835.688	9540
178	3837.063	3835.749	9381
179	3837.125	3835.81	9002
180	3837.186	3835.871	8739
181	3837.247	3835.932	8891
182	3837.308	3835.993	9229
183	3837.369	3836.054	9225
184	3837.43	3836.116	9349
185	3837.491	3836.177	9386
186	3837.552	3836.238	8911
187	3837.614	3836.299	8631
188	3837.675	3836.36	8563
189	3837.736	3836.421	8578
190	3837.797	3836.482	8823
191	3837.858	3836.543	9053
192	3837.919	3836.605	9218
193	3837.98	3836.666	9409
194	3838.042	3836.727	9671
195	3838.103	3836.788	9629
196	3838.164	3836.849	9664
197	3838.225	3836.91	9472
198	3838.286	3836.971	9099
199	3838.347	3837.033	8663
200	3838.408	3837.094	8657
201	3838.469	3837.155	8579
202	3838.531	3837.216	8900
203	3838.592	3837.277	9102
204	3838.653	3837.338	9389
205	3838.714	3837.399	9437
206	3838.775	3837.46	9518
207	3838.836	3837.522	9218
208	3838.897	3837.583	8933
209	3838.958	3837.644	8838
210	3839.02	3837.705	8796
211	3839.081	3837.766	8800
212	3839.142	3837.827	9009
213	3839.203	3837.888	9266
214	3839.264	3837.95	9458
215	3839.325	3838.011	9648
216	3839.386	3838.072	9696
217	3839.448	3838.133	9464
218	3839.509	3838.194	9317
219	3839.57	3838.255	9499
220	3839.631	3838.316	9457
221	3839.692	3838.377	9476
222	3839.753	3838.439	9405
223	3839.814	3838.5	9104
224	3839.875	3838.561	8731
225	3839.937	3838.622	8462
226	3839.998	3838.683	8621
227	3840.059	3838.744	8576
228	3840.12	3838.805	8670
229	3840.181	3838.867	8694
230	3840.242	3838.928	8892
231	3840.303	3838.989	9202
232	3840.365	3839.05	9215
233	3840.426	3839.111	9354
234	3840.487	3839.172	9053
235	3840.548	3839.233	8936
236	3840.609	3839.294	8875
237	3840.67	3839.356	8998
238	3840.731	3839.417	9291
239	3840.792	3839.478	9624
240	3840.854	3839.539	9672
241	3840.915	3839.6	9656
242	3840.976	3839.661	9542
243	3841.037	3839.722	9158
244	3841.098	3839.784	8778
245	3841.159	3839.845	8805
246	3841.22	3839.906	8699
247	3841.281	3839.967	8847
248	3841.343	3840.028	9116
249	3841.404	3840.089	9125
250	3841.465	3840.15	9183
251	3841.526	3840.211	9217
252	3841.587	3840.273	9111
253	3841.648	3840.334	9220
254	3841.709	3840.395	9409
255	3841.771	3840.456	9762
256	3841.832	3840.517	9834
257	3841.893	3840.578	9698
258	3841.954	3840.639	9272
259	3842.015	3840.701	9143
260	3842.076	3840.762	8914
261	3842.137	3840.823	8959
262	3842.198	3840.884	8874
263	3842.26	3840.945	8888
264	3842.321	3841.006	9103
265	3842.382	3841.067	9049
266	3842.443	3841.128	9203
267	3842.504	3841.19	9125
268	3842.565	3841.251	8829
269	3842.626	3841.312	8696
270	3842.688	3841.373	8735
271	3842.749	3841.434	9028
272	3842.81	3841.495	9387
273	3842.871	3841.556	9460
274	3842.932	3841.618	9661
275	3842.993	3841.679	9537
276	3843.054	3841.74	9116
277	3843.115	3841.801	9026
278	3843.177	3841.862	9062
279	3843.238	3841.923	9186
280	3843.299	3841.984	9427
281	3843.36	3842.045	9373
282	3843.421	3842.107	9277
283	3843.482	3842.168	9203
284	3843.543	3842.229	9050
285	3843.604	3842.29	9254
286	3843.666	3842.351	9490
287	3843.727	3842.412	9559
288	3843.788	3842.473	9514
289	3843.849	3842.535	9232
290	3843.91	3842.596	8765
291	3843.971	3842.657	8559
292	3844.032	3842.718	8676
293	3844.094	3842.779	8747
294	3844.155	3842.84	8957
295	3844.216	3842.901	9116
296	3844.277	3842.962	9232
297	3844.338	3843.024	9505
298	3844.399	3843.085	9358
299	3844.46	3843.146	9072
300	3844.521	3843.207	9304
301	3844.583	3843.268	9403
302	3844.644	3843.329	9528
303	3844.705	3843.39	9511
304	3844.766	3843.452	9563
305	3844.827	3843.513	9219
306	3844.888	3843.574	8809
307	3844.949	3843.635	8813
308	3845.01	3843.696	8786
309	3845.072	3843.757	8938
310	3845.133	3843.818	9130
311	3845.194	3843.879	9222
312	3845.255	3843.941	9363
313	3845.316	3844.002	9482
314	3845.377	3844.063	9515
315	3845.438	3844.124	9628
316	3845.5	3844.185	9773
317	3845.561	3844.246	9624
318	3845.622	3844.307	9178
319	3845.683	3844.369	8944
320	3845.744	3844.43	9015
321	3845.805	3844.491	8986
322	3845.866	3844.552	9179
323	3845.927	3844.613	9162
324	3845.989	3844.674	9066
325	3846.05	3844.735	9164
326	3846.111	3844.796	9057
327	3846.172	3844.858	9290
328	3846.233	3844.919	9425
329	3846.294	3844.98	9646
330	3846.355	3845.041	9841
331	3846.417	3845.102	9762
332	3846.478	3845.163	9315
333	3846.539	3845.224	9127
334	3846.6	3845.286	9046
335	3846.661	3845.347	9129
336	3846.722	3845.408	9246
337	3846.783	3845.469	9329
338	3846.844	3845.53	9690
339	3846.906	3845.591	9732
340	3846.967	3845.652	9863
341	3847.028	3845.713	9853
342	3847.089	3845.775	9568
343	3847.15	3845.836	9168
344	3847.211	3845.897	8959
345	3847.272	3845.958	8861
346	3847.333	3846.019	8858
347	3847.395	3846.08	8812
348	3847.456	3846.141	8980
349	3847.517	3846.203	8890
350	3847.578	3846.264	9018
351	3847.639	3846.325	9232
352	3847.7	3846.386	9590
353	3847.761	3846.447	9576
354	3847.823	3846.508	9696
355	3847.884	3846.569	9324
356	3847.945	3846.63	9179
357	3848.006	3846.692	9277
358	3848.067	3846.753	9205
359	3848.128	3846.814	9451
360	3848.189	3846.875	9638
361	3848.25	3846.936	9562
362	3848.312	3846.997	9579
363	3848.373	3847.058	9733
364	3848.434	3847.12	9394
365	3848.495	3847.181	8962
366	3848.556	3847.242	8887
367	3848.617	3847.303	8875
368	3848.678	3847.364	8862
369	3848.74	3847.425	8944
370	3848.801	3847.486	9289
371	3848.862	3847.547	9874
372	3848.923	3847.609	10361
373	3848.984	3847.67	10641
374	3849.045	3847.731	10899
375	3849.106	3847.792	10494
376	3849.167	3847.853	9677
377	3849.229	3847.914	9297
378	3849.29	3847.975	9349
379	3849.351	3848.037	9517
380	3849.412	3848.098	9764
381	3849.473	3848.159	9930
382	3849.534	3848.22	10006
383	3849.595	3848.281	9556
384	3849.657	3848.342	9205
385	3849.718	3848.403	9059
386	3849.779	3848.464	8913
387	3849.84	3848.526	9164
388	3849.901	3848.587	9513
389	3849.962	3848.648	9736
390	3850.023	3848.709	9892
391	3850.084	3848.77	10118
392	3850.146	3848.831	10068
393	3850.207	3848.892	9820
394	3850.268	3848.954	9866
395	3850.329	3849.015	9950
396	3850.39	3849.076	10175
397	3850.451	3849.137	9900
398	3850.512	3849.198	9737
399	3850.574	3849.259	9222
400	3850.635	3849.32	9106
401	3850.696	3849.381	9119
402	3850.757	3849.443	9479
403	3850.818	3849.504	9628
404	3850.879	3849.565	9660
405	3850.94	3849.626	9790
406	3851.001	3849.687	9731
407	3851.063	3849.748	9574
408	3851.124	3849.809	9538
409	3851.185	3849.871	9659
410	3851.246	3849.932	9932
411	3851.307	3849.993	9892
412	3851.368	3850.054	9967
413	3851.429	3850.115	10301
414	3851.491	3850.176	10390
415	3851.552	3850.237	10515
416	3851.613	3850.298	10386
417	3851.674	3850.36	10332
418	3851.735	3850.421	10078
419	3851.796	3850.482	10114
420	3851.857	3850.543	10228
421	3851.918	3850.604	10318
422	3851.98	3850.665	10464
423	3852.041	3850.726	10656
424	3852.102	3850.788	11128
425	3852.163	3850.849	11397
426	3852.224	3850.91	11594
427	3852.285	3850.971	11598
428	3852.346	3851.032	11513
429	3852.408	3851.093	10816
430	3852.469	3851.154	10017
431	3852.53	3851.215	9358
432	3852.591	3851.277	9334
433	3852.652	3851.338	9094
434	3852.713	3851.399	8875
435	3852.774	3851.46	8703
436	3852.835	3851.521	8621
437	3852.897	3851.582	8659
438	3852.958	3851.643	8532
439	3853.019	3851.705	8463
440	3853.08	3851.766	8643
441	3853.141	3851.827	8585
442	3853.202	3851.888	8711
443	3853.263	3851.949	8689
444	3853.325	3852.01	8785
445	3853.386	3852.071	8715
446	3853.447	3852.132	8834
447	3853.508	3852.194	8926
448	3853.569	3852.255	8804
449	3853.63	3852.316	8864
450	3853.691	3852.377	8933
451	3853.752	3852.438	8868
452	3853.814	3852.499	8857
453	3853.875	3852.56	8785
454	3853.936	3852.622	8659
455	3853.997	3852.683	8808
456	3854.058	3852.744	8759
457	3854.119	3852.805	8851
458	3854.18	3852.866	8800
459	3854.242	3852.927	8729
460	3854.303	3852.988	8740
461	3854.364	3853.049	8621
462	3854.425	3853.111	8711
463	3854.486	3853.172	8756
464	3854.547	3853.233	9112
465	3854.608	3853.294	9212
466	3854.669	3853.355	9360
467	3854.731	3853.416	9469
468	3854.792	3853.477	9308
469	3854.853	3853.539	9096
470	3854.914	3853.6	8822
471	3854.975	3853.661	8724
472	3855.036	3853.722	8798
473	3855.097	3853.783	8695
474	3855.159	3853.844	8563
475	3855.22	3853.905	8536
476	3855.281	3853.966	8503
477	3855.342	3854.028	8652
478	3855.403	3854.089	8711
479	3855.464	3854.15	8588
480	3855.525	3854.211	8768
481	3855.586	3854.272	8779
482	3855.648	3854.333	9116
483	3855.709	3854.394	9092
484	3855.77	3854.456	9172
485	3855.831	3854.517	9142
486	3855.892	3854.578	8851
487	3855.953	3854.639	8780
488	3856.014	3854.7	8680
489	3856.076	3854.761	8655
490	3856.137	3854.822	8577
491	3856.198	3854.883	8723
492	3856.259	3854.945	8664
493	3856.32	3855.006	8646
494	3856.381	3855.067	8657
495	3856.442	3855.128	8775
496	3856.503	3855.189	8745
497	3856.565	3855.25	8801
498	3856.626	3855.311	8917
499	3856.687	3855.373	9013
500	3856.748	3855.434	9027
501	3856.809	3855.495	9079
502	3856.87	3855.556	8914
503	3856.931	3855.617	8924
504	3856.993	3855.678	8656
505	3857.054	3855.739	8573
506	3857.115	3855.8	8559
507	3857.176	3855.862	8630
508	3857.237	3855.923	8718
509	3857.298	3855.984	8683
510	3857.359	3856.045	8717
511	3857.42	3856.106	8607
512	3857.482	3856.167	8491
513	3857.543	3856.228	8691
514	3857.604	3856.29	8645
515	3857.665	3856.351	8900
516	3857.726	3856.412	9063
517	3857.787	3856.473	9192
518	3857.848	3856.534	9271
519	3857.91	3856.595	9277
520	3857.971	3856.656	9115
521	3858.032	3856.717	8864
522	3858.093	3856.779	8769
523	3858.154	3856.84	8726
524	3858.215	3856.901	8635
525	3858.276	3856.962	8680
526	3858.337	3857.023	8680
527	3858.399	3857.084	8689
528	3858.46	3857.145	8823
529	3858.521	3857.207	8894
530	3858.582	3857.268	9299
531	3858.643	3857.329	9765
532	3858.704	3857.39	10340
533	3858.765	3857.451	10503
534	3858.827	3857.512	10680
535	3858.888	3857.573	10247
536	3858.949	3857.634	9820
537	3859.01	3857.696	9235
538	3859.071	3857.757	9037
539	3859.132	3857.818	9007
540	3859.193	3857.879	8832
541	3859.254	3857.94	8718
542	3859.316	3858.001	8696
543	3859.377	3858.062	8805
544	3859.438	3858.124	8716
545	3859.499	3858.185	8744
546	3859.56	3858.246	8843
547	3859.621	3858.307	8948
548	3859.682	3858.368	9014
549	3859.744	3858.429	9079
550	3859.805	3858.49	9112
551	3859.866	3858.551	9268
552	3859.927	3858.613	9087
553	3859.988	3858.674	8942
554	3860.049	3858.735	9071
555	3860.11	3858.796	9159
556	3860.171	3858.857	9002
557	3860.233	3858.918	8865
558	3860.294	3858.979	8855
559	3860.355	3859.041	8815
560	3860.416	3859.102	8807
561	3860.477	3859.163	8751
562	3860.538	3859.224	8870
563	3860.599	3859.285	9118
564	3860.661	3859.346	9244
565	3860.722	3859.407	9512
566	3860.783	3859.468	9441
567	3860.844	3859.53	9300
568	3860.905	3859.591	9145
569	3860.966	3859.652	9051
570	3861.027	3859.713	8887
571	3861.088	3859.774	9025
572	3861.15	3859.835	9021
573	3861.211	3859.896	9095
574	3861.272	3859.958	9121
575	3861.333	3860.019	9101
576	3861.394	3860.08	9144
577	3861.455	3860.141	9284
578	3861.516	3860.202	9613
579	3861.578	3860.263	9730
580	3861.639	3860.324	9983
581	3861.7	3860.385	9767
582	3861.761	3860.447	9531
583	3861.822	3860.508	9162
584	3861.883	3860.569	8892
585	3861.944	3860.63	8743
586	3862.005	3860.691	8635
587	3862.067	3860.752	8667
588	3862.128	3860.813	8621
589	3862.189	3860.875	8616
590	3862.25	3860.936	8633
591	3862.311	3860.997	8580
592	3862.372	3861.058	8761
593	3862.433	3861.119	8770
594	3862.495	3861.18	8976
595	3862.556	3861.241	8928
596	3862.617	3861.302	8935
597	3862.678	3861.364	8873
598	3862.739	3861.425	8736
599	3862.8	3861.486	8602
600	3862.861	3861.547	8576
601	3862.922	3861.608	8613
602	3862.984	3861.669	8693
603	3863.045	3861.73	8687
604	3863.106	3861.792	8893
605	3863.167	3861.853	9106
606	3863.228	3861.914	9380
607	3863.289	3861.975	9590
608	3863.35	3862.036	9623
609	3863.412	3862.097	9539
610	3863.473	3862.158	9297
611	3863.534	3862.219	9146
612	3863.595	3862.281	8999
613	3863.656	3862.342	8818
614	3863.717	3862.403	8714
615	3863.778	3862.464	8647
616	3863.839	3862.525	8712
617	3863.901	3862.586	8598
618	3863.962	3862.647	8787
619	3864.023	3862.708	8754
620	3864.084	3862.77	8798
621	3864.145	3862.831	8878
622	3864.206	3862.892	9041
623	3864.267	3862.953	9141
624	3864.329	3863.014	9062
625	3864.39	3863.075	9089
626	3864.451	3863.136	9018
627	3864.512	3863.198	8854
628	3864.573	3863.259	8751
629	3864.634	3863.32	8612
630	3864.695	3863.381	8574
631	3864.756	3863.442	8692
632	3864.818	3863.503	8567
633	3864.879	3863.564	8496
634	3864.94	3863.625	8636
635	3865.001	3863.687	8598
636	3865.062	3863.748	8689
637	3865.123	3863.809	8874
638	3865.184	3863.87	8962
639	3865.246	3863.931	9068
640	3865.307	3863.992	8976
641	3865.368	3864.053	8716
642	3865.429	3864.115	8610
643	3865.49	3864.176	8782
644	3865.551	3864.237	8762
645	3865.612	3864.298	8672
646	3865.673	3864.359	8658
647	3865.735	3864.42	8612
648	3865.796	3864.481	8580
649	3865.857	3864.542	8648
650	3865.918	3864.604	8838
651	3865.979	3864.665	8824
652	3866.04	3864.726	8911
653	3866.101	3864.787	8972
654	3866.163	3864.848	8895
655	3866.224	3864.909	8815
656	3866.285	3864.97	8685
657	3866.346	3865.031	8595
658	3866.407	3865.093	8636
659	3866.468	3865.154	8756
660	3866.529	3865.215	8804
661	3866.59	3865.276	8742
662	3866.652	3865.337	8688
663	3866.713	3865.398	8797
664	3866.774	3865.459	8910
665	3866.835	3865.521	8907
666	3866.896	3865.582	9047
667	3866.957	3865.643	9186
668	3867.018	3865.704	9433
669	3867.08	3865.765	9573
670	3867.141	3865.826	9502
671	3867.202	3865.887	9540
672	3867.263	3865.948	9159
673	3867.324	3866.01	9004
674	3867.385	3866.071	8932
675	3867.446	3866.132	8774
676	3867.507	3866.193	8891
677	3867.569	3866.254	8852
678	3867.63	3866.315	8903
679	3867.691	3866.376	9067
680	3867.752	3866.438	9047
681	3867.813	3866.499	8893
682	3867.874	3866.56	8785
683	3867.935	3866.621	8637
684	3867.997	3866.682	8792
685	3868.058	3866.743	8726
686	3868.119	3866.804	8714
687	3868.18	3866.865	8790
688	3868.241	3866.927	8758
689	3868.302	3866.988	8769
690	3868.363	3867.049	8782
691	3868.424	3867.11	8812
692	3868.486	3867.171	8909
693	3868.547	3867.232	8896
694	3868.608	3867.293	8823
695	3868.669	3867.354	8792
696	3868.73	3867.416	8829
697	3868.791	3867.477	8678
698	3868.852	3867.538	8781
699	3868.914	3867.599	8737
700	3868.975	3867.66	8901
701	3869.036	3867.721	8958
702	3869.097	3867.782	9302
703	3869.158	3867.844	9493
704	3869.219	3867.905	9637
705	3869.28	3867.966	9528
706	3869.341	3868.027	9365
707	3869.403	3868.088	9044
708	3869.464	3868.149	9023
709	3869.525	3868.21	8786
710	3869.586	3868.271	8732
711	3869.647	3868.333	8788
712	3869.708	3868.394	8811
713	3869.769	3868.455	8987
714	3869.831	3868.516	9052
715	3869.892	3868.577	9111
716	3869.953	3868.638	9156
717	3870.014	3868.699	9452
718	3870.075	3868.76	9477
